File: sample_data/sample_xrd_2.csv
two_theta,intensity
10,123.97
10.24,122.84
10.48,120.43
10.72,122.07
10.96,126.1
11.2,114.35
11.44,118.23
11.68,116.91
11.92,116.34
12.16,127.22
12.4,117.97
12.64,126.33
12.88,119.15
13.12,123.93
13.36,122.56
13.6,129.94
13.84,121.56
14.08,113.29
14.32,126.3
14.56,119.41
14.8,119.36
15.04,132.45
15.28,126.24
15.52,120.13
15.76,122.55
16,132.72
16.24,132.87
16.48,133.32
16.72,120.93
16.96,116.45
17.2,123.66
17.44,128.78
17.68,116.56
17.92,128.44
18.16,114.74
18.4,125.24
18.64,124.19
18.88,123.2
19.12,130.37
19.36,130.59
19.6,126.25
19.84,123.77
20.08,110.45
20.32,128.69
20.56,126.71
20.8,117.06
21.04,127.05
21.28,130.14
21.52,132.39
21.76,126.96
22,128.44
22.24,118.81
22.48,128.36
22.72,125.13
22.96,126.98
23.2,117.77
23.44,122.74
23.68,124.2
23.92,114.85
24.16,125.42
24.4,126.13
24.64,129.43
24.88,127.26
25.12,122.23
25.36,120.52
25.6,126.74
25.84,129.63
26.08,133.58
26.32,125.22
26.56,133.38
26.8,136.91
27.04,132
27.28,124.07
27.52,127.56
27.76,115.19
28,129.89
28.24,283.25
28.48,965.44
28.72,150.05
28.96,130.02
29.2,136.26
29.44,129.38
29.68,130.21
29.92,132.26
30.16,132.29
30.4,130.29
30.64,126.17
30.88,124.94
31.12,129.58
31.36,136.14
31.6,130.22
31.84,133.06
32.08,123.68
32.32,134.92
32.56,128.11
32.8,138.01
33.04,130.87
33.28,124.66
33.52,125.86
33.76,132.82
34,123.23
34.24,129
34.48,125.51
34.72,130.23
34.96,129.33
35.2,135.27
35.44,128.48
35.68,130.75
35.92,122.65
36.16,116.73
36.4,126.91
36.64,135.18
36.88,125.72
37.12,129.09
37.36,137.29
37.6,137.28
37.84,128.53
38.08,128.42
38.32,142.56
38.56,134.78
38.8,128.27
39.04,131.16
39.28,136.72
39.52,142.35
39.76,133.6
40,129.22
40.24,136.62
40.48,130.11
40.72,136.07
40.96,135.17
41.2,130.55
41.44,134.31
41.68,132.1
41.92,134.39
42.16,131.79
42.4,135.86
42.64,133.8
42.88,125.7
43.12,135.2
43.36,134.76
43.6,125.94
43.84,126.63
44.08,134.82
44.32,130.81
44.56,134.19
44.8,131.98
45.04,130.73
45.28,128.85
45.52,127.47
45.76,135.81
46,134.2
46.24,135.87
46.48,130.2
46.72,135.81
46.96,147.07
47.2,505.6
47.44,405.27
47.68,130.9
47.92,127.43
48.16,132.93
48.4,129.91
48.64,131.17
48.88,133.68
49.12,140.22
49.36,133.63
49.6,136.74
49.84,137.14
50.08,129.06
50.32,136.04
50.56,137.31
50.8,141
51.04,142.28
51.28,135.05
51.52,136.52
51.76,133.65
52,138.18
52.24,141.56
52.48,136.96
52.72,138.45
52.96,135.49
53.2,134.81
53.44,136.02
53.68,128.92
53.92,136.83
54.16,140.89
54.4,138.4
54.64,131.61
54.88,140.61
55.12,139.91
55.36,129.13
55.6,144.87
55.84,186.48
56.08,475.69
56.32,255.84
56.56,141.59
56.8,146.4
57.04,138.92
57.28,151.87
57.52,141.84
57.76,145.05
58,137.31
58.24,131.13
58.48,140.26
58.72,134.95
58.96,143.82
59.2,133.79
59.44,141.83
59.68,139.8
59.92,139.8
60.16,145.05
60.4,139.56
60.64,141.97
60.88,140.63
61.12,130.47
61.36,132.03
61.6,136.24
61.84,143.65
62.08,147.31
62.32,141.49
62.56,137.56
62.8,144.7
63.04,148.3
63.28,139.87
63.52,149.92
63.76,148.64
64,146.61
64.24,142.06
64.48,139.62
64.72,137.94
64.96,141.95
65.2,139.42
65.44,141.79
65.68,145.05
65.92,146.04
66.16,144.75
66.4,135.77
66.64,148.45
66.88,140.39
67.12,143.52
67.36,144.27
67.6,145.59
67.84,143.71
68.08,142.25
68.32,152.3
68.56,137.87
68.8,169.01
69.04,324.45
69.28,273.28
69.52,146.82
69.76,146.26
70,151.5
70.24,143.26
70.48,144.64
70.72,146.31
70.96,150.18
71.2,151.75
71.44,138.12
71.68,143.74
71.92,152.86
72.16,139.87
72.4,148.13
72.64,146.84
72.88,144.72
73.12,160.19
73.36,142.36
73.6,142.14
73.84,147.63
74.08,149.47
74.32,140.86
74.56,150.65
74.8,153.26
75.04,140.79
75.28,145.49
75.52,152.88
75.76,146.2
76,157.45
76.24,239.63
76.48,266.16
76.72,159.27
76.96,151.63
77.2,148.67
77.44,141.69
77.68,148.84
77.92,144.82
78.16,151.93
78.4,149.63
78.64,148.01
78.88,155.38
79.12,151.16
79.36,157.21
79.6,147.74
79.84,148.95
79.98,153.41